"VI - RawData"
"Wavelength nm.","T%"
400.00,1.96231
401.00,1.98675
402.00,2.01594
403.00,2.04800
404.00,2.07541
405.00,2.10601
406.00,2.13074
407.00,2.15426
408.00,2.18401
409.00,2.21696
410.00,2.25943
411.00,2.27214
412.00,2.31370
413.00,2.34418
414.00,2.36643
415.00,2.40866
416.00,2.42865
417.00,2.45790
418.00,2.50389
419.00,2.52529
420.00,2.55804
421.00,2.56952
422.00,2.60157
423.00,2.63240
424.00,2.65558
425.00,2.70268
426.00,2.71974
427.00,2.73940
428.00,2.77711
429.00,2.80289
430.00,2.82301
431.00,2.84418
432.00,2.88231
433.00,2.89976
434.00,2.91269
435.00,2.94937
436.00,2.96972
437.00,3.00307
438.00,3.01347
439.00,3.03674
440.00,3.04533
441.00,3.07340
442.00,3.08341
443.00,3.10141
444.00,3.11384
445.00,3.13898
446.00,3.15926
447.00,3.17466
448.00,3.17621
449.00,3.20251
450.00,3.21299
451.00,3.22367
452.00,3.24455
453.00,3.26704
454.00,3.27881
455.00,3.28675
456.00,3.29943
457.00,3.32262
458.00,3.34004
459.00,3.33790
460.00,3.37114
461.00,3.37873
462.00,3.39406
463.00,3.41444
464.00,3.42563
465.00,3.43751
466.00,3.45165
467.00,3.46378
468.00,3.47335
469.00,3.50536
470.00,3.52085
471.00,3.53506
472.00,3.55153
473.00,3.55664
474.00,3.57848
475.00,3.59343
476.00,3.61547
477.00,3.62244
478.00,3.64539
479.00,3.64613
480.00,3.65322
481.00,3.67136
482.00,3.69605
483.00,3.70857
484.00,3.72865
485.00,3.74249
486.00,3.74311
487.00,3.76596
488.00,3.77996
489.00,3.78967
490.00,3.79652
491.00,3.81601
492.00,3.81600
493.00,3.83388
494.00,3.84622
495.00,3.85630
496.00,3.85691
497.00,3.87839
498.00,3.87989
499.00,3.88466
500.00,3.89767
501.00,3.91295
502.00,3.92143
503.00,3.93490
504.00,3.93988
505.00,3.94785
506.00,3.96708
507.00,3.97071
508.00,3.98997
509.00,4.00795
510.00,4.02155
511.00,4.02191
512.00,4.04208
513.00,4.06341
514.00,4.06452
515.00,4.09187
516.00,4.10997
517.00,4.13454
518.00,4.14526
519.00,4.15649
520.00,4.19466
521.00,4.20979
522.00,4.23339
523.00,4.25518
524.00,4.28986
525.00,4.31702
526.00,4.32238
527.00,4.35052
528.00,4.37941
529.00,4.41819
530.00,4.43467
531.00,4.46767
532.00,4.49683
533.00,4.53288
534.00,4.56900
535.00,4.59839
536.00,4.61198
537.00,4.67104
538.00,4.68823
539.00,4.70621
540.00,4.74741
541.00,4.79164
542.00,4.81598
543.00,4.83682
544.00,4.87338
545.00,4.90579
546.00,4.93370
547.00,4.95746
548.00,4.97763
549.00,5.01991
550.00,5.04483
551.00,5.07286
552.00,5.10708
553.00,5.12326
554.00,5.15406
555.00,5.17178
556.00,5.19284
557.00,5.21737
558.00,5.24743
559.00,5.26527
560.00,5.28373
561.00,5.31266
562.00,5.31714
563.00,5.34123
564.00,5.36457
565.00,5.39557
566.00,5.39891
567.00,5.42995
568.00,5.44529
569.00,5.45665
570.00,5.46921
571.00,5.50258
572.00,5.50736
573.00,5.53038
574.00,5.55388
575.00,5.56468
576.00,5.58670
577.00,5.58622
578.00,5.61700
579.00,5.62729
580.00,5.65156
581.00,5.66699
582.00,5.68494
583.00,5.68963
584.00,5.71293
585.00,5.74507
586.00,5.75486
587.00,5.78093
588.00,5.79157
589.00,5.80634
590.00,5.83648
591.00,5.86690
592.00,5.89113
593.00,5.90685
594.00,5.92715
595.00,5.95492
596.00,5.97961
597.00,6.01691
598.00,6.03388
599.00,6.06751
600.00,6.11385
601.00,6.14361
602.00,6.19105
603.00,6.23015
604.00,6.26149
605.00,6.32098
606.00,6.37032
607.00,6.42873
608.00,6.48728
609.00,6.53765
610.00,6.61898
611.00,6.68302
612.00,6.75550
613.00,6.85457
614.00,6.92940
615.00,7.03182
616.00,7.13323
617.00,7.23433
618.00,7.35282
619.00,7.47432
620.00,7.62455
621.00,7.74695
622.00,7.88161
623.00,8.05260
624.00,8.19842
625.00,8.36320
626.00,8.55270
627.00,8.73113
628.00,8.91805
629.00,9.12794
630.00,9.32371
631.00,9.53290
632.00,9.73427
633.00,9.99506
634.00,10.25405
635.00,10.51514
636.00,10.75431
637.00,11.06682
638.00,11.35020
639.00,11.64379
640.00,11.97186
641.00,12.31306
642.00,12.65602
643.00,12.99940
644.00,13.35869
645.00,13.74019
646.00,14.12857
647.00,14.51720
648.00,14.92326
649.00,15.33791
650.00,15.78328
651.00,16.23500
652.00,16.61781
653.00,17.08654
654.00,17.49474
655.00,17.96194
656.00,18.46474
657.00,18.85898
658.00,19.36064
659.00,19.85281
660.00,20.29247
661.00,20.77573
662.00,21.29588
663.00,21.76466
664.00,22.26773
665.00,22.73250
666.00,23.14695
667.00,23.63287
668.00,24.03996
669.00,24.44831
670.00,24.87818
671.00,25.30507
672.00,25.75298
673.00,26.08952
674.00,26.44250
675.00,26.84118
676.00,27.20143
677.00,27.53406
678.00,27.89645
679.00,28.25371
680.00,28.55919
681.00,28.87796
682.00,29.18786
683.00,29.50909
684.00,29.76721
685.00,30.10505
686.00,30.32809
687.00,30.50992
688.00,30.86319
689.00,31.10037
690.00,31.36742
691.00,31.53127
692.00,31.74671
693.00,32.01102
694.00,32.18198
695.00,32.37740
696.00,32.59994
697.00,32.71778
698.00,32.89284
699.00,32.98232
700.00,33.18700
701.00,33.39052
702.00,33.50753
703.00,33.67782
704.00,33.86176
705.00,33.97695
706.00,34.10140
707.00,34.22622
708.00,34.35361
709.00,34.46752
710.00,34.63331
711.00,34.66180
712.00,34.82152
713.00,34.91766
714.00,35.08513
715.00,35.10769
716.00,35.25468
717.00,35.35274
718.00,35.49807
719.00,35.56676
720.00,35.69143
721.00,35.73731
722.00,35.85008
723.00,35.89593
724.00,35.97282
725.00,36.23245
726.00,36.12350
727.00,36.18397
728.00,36.40452
729.00,36.54830
730.00,36.57292
731.00,36.60035
732.00,36.72982
733.00,36.78382
734.00,36.80199
735.00,36.88525
736.00,37.03944
737.00,37.08913
738.00,37.12537
739.00,37.04678
740.00,37.21887
741.00,37.22683
742.00,37.37941
743.00,37.40698
744.00,37.45443
745.00,37.52617
746.00,37.57126
747.00,37.67043
748.00,37.73682
749.00,37.81385
750.00,37.91569
751.00,37.86930
752.00,37.93453
753.00,38.06818
754.00,37.96107
755.00,38.05491
756.00,38.14087
757.00,38.15149
758.00,38.30692
759.00,38.32490
760.00,38.34930
761.00,38.35264
762.00,38.24757
763.00,38.65842
764.00,38.49882
765.00,38.77245
766.00,38.60243
767.00,38.66112
768.00,38.89944
769.00,38.81636
770.00,38.81647
771.00,38.90615
772.00,38.97092
773.00,38.78909
774.00,39.09816
775.00,38.95313
776.00,38.99627
777.00,38.96340
778.00,39.18039
779.00,39.15542
780.00,39.08769
781.00,39.08535
782.00,39.16565
783.00,39.18737
784.00,39.17070
785.00,39.39219
786.00,39.18257
787.00,39.30582
788.00,39.34231
789.00,39.54001
790.00,39.53184
791.00,39.53443
792.00,39.43565
793.00,39.50496
794.00,39.47113
795.00,39.47237
796.00,39.73646
797.00,39.64002
798.00,39.75450
799.00,39.56924
800.00,39.49619
801.00,39.83138
802.00,39.66599
803.00,39.58074
804.00,39.52139
805.00,39.64783
806.00,39.72262
807.00,39.74594
808.00,39.64519
809.00,39.85189
810.00,39.88905
811.00,39.82064
812.00,39.90681
813.00,39.62990
814.00,39.99817
815.00,39.85500
816.00,39.90866
817.00,39.88942
818.00,39.96232
819.00,39.99044
820.00,40.02728
821.00,40.13642
822.00,40.16678
823.00,39.93608
824.00,39.97248
825.00,39.95960
826.00,39.94064
827.00,39.98292
828.00,40.15308
829.00,39.78636
830.00,39.78246
831.00,39.99540
832.00,40.01638
833.00,40.09832
834.00,40.46854
835.00,39.95538
836.00,40.18825
837.00,40.02741
838.00,39.95279
839.00,40.00446
840.00,40.18894
841.00,40.05135
842.00,40.55419
843.00,39.88175
844.00,39.82056
845.00,40.01880
846.00,40.37823
847.00,39.79334
848.00,40.82080
849.00,39.89142
850.00,40.28820
851.00,40.57682
852.00,39.97875
853.00,40.08788
854.00,39.10978
855.00,40.15302
856.00,40.07176
857.00,40.65273
858.00,40.11692
859.00,40.21742
860.00,40.35846
861.00,40.78607
862.00,40.19894
863.00,41.68336
864.00,38.66887
865.00,40.79885
866.00,40.55921
867.00,39.31431
868.00,38.81257
869.00,38.29628
870.00,42.10768
871.00,41.45885
872.00,40.32871
873.00,41.40498
874.00,39.79399
875.00,41.24218
876.00,39.16359
877.00,38.12118
878.00,41.27489
879.00,41.57272
880.00,38.55249
881.00,39.66592
882.00,38.88680
883.00,38.71777
884.00,40.49804
885.00,39.64782
886.00,41.48088
887.00,36.27784
888.00,42.85508
889.00,38.70619
890.00,35.27047
891.00,41.64809
892.00,38.23051
893.00,39.48528
894.00,36.85375
895.00,41.78430
896.00,35.88544
897.00,40.31758
898.00,38.72857
899.00,32.74541
900.00,39.54548
