"Cu2AgBiI6_VI - RawData"
"Wavelength nm.","T%"
400.00,2.02596
401.00,2.06746
402.00,2.09758
403.00,2.13275
404.00,2.15382
405.00,2.17823
406.00,2.21800
407.00,2.24211
408.00,2.27210
409.00,2.31147
410.00,2.34644
411.00,2.37696
412.00,2.41337
413.00,2.44555
414.00,2.46830
415.00,2.49769
416.00,2.55231
417.00,2.56636
418.00,2.61720
419.00,2.65057
420.00,2.67690
421.00,2.70472
422.00,2.73524
423.00,2.78183
424.00,2.79861
425.00,2.83597
426.00,2.86004
427.00,2.88314
428.00,2.92125
429.00,2.95656
430.00,2.96298
431.00,3.00334
432.00,3.02684
433.00,3.05481
434.00,3.06777
435.00,3.09778
436.00,3.12270
437.00,3.14554
438.00,3.17244
439.00,3.18877
440.00,3.20237
441.00,3.22774
442.00,3.25255
443.00,3.27013
444.00,3.29091
445.00,3.30051
446.00,3.32302
447.00,3.32520
448.00,3.34973
449.00,3.37395
450.00,3.37687
451.00,3.40339
452.00,3.41038
453.00,3.42316
454.00,3.43893
455.00,3.46533
456.00,3.46621
457.00,3.48117
458.00,3.48254
459.00,3.49777
460.00,3.51362
461.00,3.52282
462.00,3.53376
463.00,3.54289
464.00,3.55703
465.00,3.57603
466.00,3.57913
467.00,3.59490
468.00,3.58826
469.00,3.61564
470.00,3.61948
471.00,3.62677
472.00,3.63054
473.00,3.64049
474.00,3.66032
475.00,3.66123
476.00,3.66858
477.00,3.68052
478.00,3.67523
479.00,3.69708
480.00,3.68159
481.00,3.70419
482.00,3.70619
483.00,3.71605
484.00,3.71323
485.00,3.72882
486.00,3.72610
487.00,3.73238
488.00,3.72853
489.00,3.74585
490.00,3.73947
491.00,3.74815
492.00,3.74967
493.00,3.75100
494.00,3.75973
495.00,3.76118
496.00,3.76065
497.00,3.77536
498.00,3.77801
499.00,3.77812
500.00,3.78623
501.00,3.79052
502.00,3.79955
503.00,3.81742
504.00,3.80788
505.00,3.82772
506.00,3.82984
507.00,3.84218
508.00,3.86542
509.00,3.88726
510.00,3.89330
511.00,3.90583
512.00,3.92720
513.00,3.95416
514.00,3.97063
515.00,3.99351
516.00,4.02280
517.00,4.03409
518.00,4.06858
519.00,4.09044
520.00,4.11804
521.00,4.13839
522.00,4.17690
523.00,4.19647
524.00,4.23638
525.00,4.26662
526.00,4.30301
527.00,4.34356
528.00,4.36229
529.00,4.40061
530.00,4.43502
531.00,4.47730
532.00,4.51890
533.00,4.56385
534.00,4.59337
535.00,4.62741
536.00,4.65688
537.00,4.69283
538.00,4.72019
539.00,4.76014
540.00,4.80103
541.00,4.81393
542.00,4.85216
543.00,4.87383
544.00,4.90246
545.00,4.92737
546.00,4.95782
547.00,4.98716
548.00,5.00878
549.00,5.03295
550.00,5.04987
551.00,5.09064
552.00,5.09490
553.00,5.13804
554.00,5.14804
555.00,5.15142
556.00,5.17516
557.00,5.18717
558.00,5.19460
559.00,5.22308
560.00,5.22703
561.00,5.24188
562.00,5.26008
563.00,5.27244
564.00,5.27127
565.00,5.28862
566.00,5.29405
567.00,5.29495
568.00,5.29887
569.00,5.33657
570.00,5.32346
571.00,5.33804
572.00,5.34148
573.00,5.34979
574.00,5.35322
575.00,5.35899
576.00,5.36790
577.00,5.38013
578.00,5.38000
579.00,5.39984
580.00,5.41057
581.00,5.41751
582.00,5.42456
583.00,5.42719
584.00,5.43941
585.00,5.44181
586.00,5.45844
587.00,5.48274
588.00,5.49385
589.00,5.50149
590.00,5.51629
591.00,5.52451
592.00,5.54647
593.00,5.56453
594.00,5.59082
595.00,5.62339
596.00,5.64175
597.00,5.66630
598.00,5.69182
599.00,5.72820
600.00,5.76192
601.00,5.80282
602.00,5.82959
603.00,5.87797
604.00,5.92294
605.00,5.97644
606.00,6.03241
607.00,6.10418
608.00,6.15842
609.00,6.24661
610.00,6.30601
611.00,6.38977
612.00,6.47154
613.00,6.58378
614.00,6.67490
615.00,6.78420
616.00,6.90784
617.00,7.01422
618.00,7.16425
619.00,7.32008
620.00,7.48309
621.00,7.68254
622.00,7.82320
623.00,8.01682
624.00,8.19529
625.00,8.39882
626.00,8.60087
627.00,8.82431
628.00,9.05605
629.00,9.29082
630.00,9.52605
631.00,9.76561
632.00,10.04524
633.00,10.30686
634.00,10.60624
635.00,10.88264
636.00,11.18746
637.00,11.50447
638.00,11.80480
639.00,12.12953
640.00,12.46200
641.00,12.80815
642.00,13.14792
643.00,13.45105
644.00,13.84908
645.00,14.16807
646.00,14.50713
647.00,14.87007
648.00,15.24932
649.00,15.58115
650.00,15.94160
651.00,16.32671
652.00,16.66554
653.00,17.06939
654.00,17.40913
655.00,17.75791
656.00,18.10438
657.00,18.54680
658.00,18.90724
659.00,19.23663
660.00,19.62575
661.00,19.98549
662.00,20.36333
663.00,20.72354
664.00,21.10786
665.00,21.50748
666.00,21.86740
667.00,22.19581
668.00,22.54652
669.00,22.89081
670.00,23.22784
671.00,23.59322
672.00,23.86449
673.00,24.16125
674.00,24.53162
675.00,24.87401
676.00,25.11152
677.00,25.44222
678.00,25.75742
679.00,26.02517
680.00,26.29647
681.00,26.61431
682.00,26.90045
683.00,27.16409
684.00,27.44516
685.00,27.67566
686.00,27.95406
687.00,28.14128
688.00,28.35368
689.00,28.56817
690.00,28.89808
691.00,29.05721
692.00,29.25532
693.00,29.51056
694.00,29.70211
695.00,29.83767
696.00,30.04314
697.00,30.22059
698.00,30.37360
699.00,30.53175
700.00,30.68095
701.00,30.78647
702.00,30.96312
703.00,31.10450
704.00,31.27895
705.00,31.40622
706.00,31.48739
707.00,31.70030
708.00,31.74657
709.00,31.98179
710.00,32.04328
711.00,32.10458
712.00,32.34909
713.00,32.32849
714.00,32.44613
715.00,32.55921
716.00,32.69269
717.00,32.65338
718.00,32.76855
719.00,32.89975
720.00,33.01821
721.00,33.18481
722.00,33.21637
723.00,33.20792
724.00,33.38684
725.00,33.42679
726.00,33.60612
727.00,33.62263
728.00,33.75843
729.00,33.70794
730.00,33.81428
731.00,33.86697
732.00,33.95041
733.00,34.04558
734.00,34.07010
735.00,34.09885
736.00,34.10782
737.00,34.24819
738.00,34.31405
739.00,34.19929
740.00,34.46256
741.00,34.57761
742.00,34.46386
743.00,34.53630
744.00,34.66822
745.00,34.70793
746.00,34.68198
747.00,34.66755
748.00,34.71473
749.00,34.83902
750.00,34.83468
751.00,34.94962
752.00,34.83897
753.00,34.87118
754.00,34.93104
755.00,34.93970
756.00,34.98657
757.00,35.14221
758.00,35.18497
759.00,35.28532
760.00,35.24630
761.00,35.18738
762.00,35.29550
763.00,35.40760
764.00,35.38944
765.00,35.56858
766.00,35.62253
767.00,35.74475
768.00,35.56190
769.00,35.40105
770.00,35.49151
771.00,35.62882
772.00,35.53049
773.00,35.59129
774.00,35.70482
775.00,35.62554
776.00,35.75059
777.00,35.74136
778.00,35.88792
779.00,35.70653
780.00,35.82133
781.00,35.68659
782.00,35.91771
783.00,35.96650
784.00,35.89931
785.00,35.90451
786.00,35.84885
787.00,35.79995
788.00,35.92523
789.00,35.86974
790.00,35.78254
791.00,35.91634
792.00,36.00649
793.00,35.92058
794.00,36.16337
795.00,36.08198
796.00,35.97429
797.00,35.91202
798.00,36.18701
799.00,36.05743
800.00,35.88457
801.00,36.07207
802.00,36.11564
803.00,36.14744
804.00,36.07438
805.00,35.93883
806.00,36.00748
807.00,36.10476
808.00,36.08657
809.00,36.14501
810.00,36.14605
811.00,36.09661
812.00,36.33656
813.00,36.37249
814.00,36.17040
815.00,36.25694
816.00,36.33032
817.00,36.02337
818.00,36.17938
819.00,36.24180
820.00,36.21039
821.00,36.28411
822.00,36.35279
823.00,36.24409
824.00,36.31512
825.00,36.52529
826.00,35.97988
827.00,36.09515
828.00,36.28592
829.00,36.14675
830.00,36.26007
831.00,36.07921
832.00,36.19713
833.00,36.03483
834.00,36.34339
835.00,36.15997
836.00,35.91279
837.00,36.42596
838.00,36.26346
839.00,36.24312
840.00,36.60842
841.00,35.90755
842.00,36.67082
843.00,36.55423
844.00,36.07515
845.00,36.39700
846.00,35.85992
847.00,36.36322
848.00,36.38154
849.00,36.08890
850.00,35.68626
851.00,35.88814
852.00,36.45952
853.00,36.40504
854.00,36.03407
855.00,35.94646
856.00,35.43314
857.00,35.40454
858.00,35.73550
859.00,36.03655
860.00,36.45341
861.00,36.15271
862.00,36.94239
863.00,35.69032
864.00,36.56959
865.00,35.67375
866.00,37.72129
867.00,35.44450
868.00,35.33921
869.00,37.26323
870.00,34.80523
871.00,37.27518
872.00,36.61647
873.00,35.87605
874.00,35.70002
875.00,36.47995
876.00,33.30764
877.00,36.02377
878.00,34.78752
879.00,36.35349
880.00,36.35697
881.00,35.46199
882.00,37.81710
883.00,36.02396
884.00,40.08285
885.00,38.24849
886.00,37.07269
887.00,36.48115
888.00,36.83785
889.00,36.82634
890.00,37.23740
891.00,38.94528
892.00,36.31364
893.00,33.29328
894.00,37.55292
895.00,37.05822
896.00,32.73928
897.00,35.14851
898.00,36.31874
899.00,35.42667
900.00,39.25362
