"glass2116 - RawData"
"Wavelength nm.","T%"
400.00,0.28014
401.00,0.27901
402.00,0.28181
403.00,0.27938
404.00,0.28458
405.00,0.28024
406.00,0.28077
407.00,0.28064
408.00,0.28421
409.00,0.28214
410.00,0.27810
411.00,0.27654
412.00,0.27457
413.00,0.28041
414.00,0.28021
415.00,0.28161
416.00,0.28533
417.00,0.28639
418.00,0.28773
419.00,0.28768
420.00,0.28986
421.00,0.28999
422.00,0.29439
423.00,0.28978
424.00,0.29860
425.00,0.29348
426.00,0.29522
427.00,0.29478
428.00,0.29375
429.00,0.29631
430.00,0.29755
431.00,0.29467
432.00,0.29973
433.00,0.29630
434.00,0.29839
435.00,0.29902
436.00,0.29877
437.00,0.30010
438.00,0.29993
439.00,0.29636
440.00,0.30328
441.00,0.29894
442.00,0.30082
443.00,0.29992
444.00,0.29943
445.00,0.30150
446.00,0.30402
447.00,0.30429
448.00,0.30321
449.00,0.30528
450.00,0.30727
451.00,0.30344
452.00,0.30447
453.00,0.30642
454.00,0.30610
455.00,0.30703
456.00,0.30794
457.00,0.30831
458.00,0.30948
459.00,0.30938
460.00,0.31067
461.00,0.31256
462.00,0.31343
463.00,0.30903
464.00,0.30902
465.00,0.30986
466.00,0.30988
467.00,0.31297
468.00,0.31237
469.00,0.31393
470.00,0.31247
471.00,0.31492
472.00,0.31543
473.00,0.31610
474.00,0.31914
475.00,0.31451
476.00,0.31888
477.00,0.31517
478.00,0.31631
479.00,0.31822
480.00,0.31753
481.00,0.31930
482.00,0.31853
483.00,0.31842
484.00,0.32193
485.00,0.32050
486.00,0.32119
487.00,0.31810
488.00,0.32081
489.00,0.31760
490.00,0.32154
491.00,0.32129
492.00,0.32410
493.00,0.32339
494.00,0.32161
495.00,0.32544
496.00,0.32746
497.00,0.32785
498.00,0.32602
499.00,0.32770
500.00,0.32814
501.00,0.32606
502.00,0.32707
503.00,0.32868
504.00,0.32734
505.00,0.32616
506.00,0.32887
507.00,0.32900
508.00,0.32809
509.00,0.32942
510.00,0.32633
511.00,0.32935
512.00,0.32779
513.00,0.32872
514.00,0.32887
515.00,0.32990
516.00,0.33057
517.00,0.33273
518.00,0.33185
519.00,0.33046
520.00,0.33368
521.00,0.32989
522.00,0.33138
523.00,0.33025
524.00,0.33304
525.00,0.33004
526.00,0.33298
527.00,0.33150
528.00,0.33584
529.00,0.33250
530.00,0.33130
531.00,0.33361
532.00,0.33476
533.00,0.33281
534.00,0.33339
535.00,0.33230
536.00,0.33559
537.00,0.33796
538.00,0.33890
539.00,0.33597
540.00,0.33720
541.00,0.33574
542.00,0.33773
543.00,0.33753
544.00,0.33785
545.00,0.33845
546.00,0.33654
547.00,0.33567
548.00,0.33688
549.00,0.33871
550.00,0.33529
551.00,0.33509
552.00,0.33820
553.00,0.33487
554.00,0.33619
555.00,0.33764
556.00,0.33864
557.00,0.33999
558.00,0.33542
559.00,0.33707
560.00,0.33875
561.00,0.33885
562.00,0.33766
563.00,0.33529
564.00,0.33353
565.00,0.33810
566.00,0.33637
567.00,0.33735
568.00,0.34093
569.00,0.33953
570.00,0.33655
571.00,0.33895
572.00,0.33791
573.00,0.34068
574.00,0.34257
575.00,0.33852
576.00,0.34022
577.00,0.33918
578.00,0.34439
579.00,0.34588
580.00,0.34439
581.00,0.34384
582.00,0.34653
583.00,0.34836
584.00,0.34894
585.00,0.35251
586.00,0.35281
587.00,0.35287
588.00,0.35612
589.00,0.35561
590.00,0.36044
591.00,0.36348
592.00,0.36685
593.00,0.36922
594.00,0.37129
595.00,0.37548
596.00,0.38139
597.00,0.38649
598.00,0.39144
599.00,0.39807
600.00,0.40568
601.00,0.41354
602.00,0.42149
603.00,0.43157
604.00,0.44344
605.00,0.45407
606.00,0.47083
607.00,0.48806
608.00,0.50423
609.00,0.52209
610.00,0.54056
611.00,0.56261
612.00,0.58593
613.00,0.61726
614.00,0.65158
615.00,0.68730
616.00,0.73412
617.00,0.77759
618.00,0.82124
619.00,0.87904
620.00,0.94559
621.00,1.01077
622.00,1.08203
623.00,1.16457
624.00,1.25016
625.00,1.33615
626.00,1.42733
627.00,1.52683
628.00,1.64644
629.00,1.77132
630.00,1.88367
631.00,2.02471
632.00,2.16017
633.00,2.32252
634.00,2.47938
635.00,2.64870
636.00,2.83039
637.00,3.02177
638.00,3.21541
639.00,3.42861
640.00,3.65121
641.00,3.86306
642.00,4.10639
643.00,4.34054
644.00,4.59945
645.00,4.85287
646.00,5.09099
647.00,5.38109
648.00,5.66322
649.00,5.93670
650.00,6.21984
651.00,6.52372
652.00,6.82657
653.00,7.13660
654.00,7.44104
655.00,7.77588
656.00,8.08693
657.00,8.42920
658.00,8.75308
659.00,9.10453
660.00,9.44167
661.00,9.79597
662.00,10.16715
663.00,10.53856
664.00,10.92942
665.00,11.31494
666.00,11.60178
667.00,12.01324
668.00,12.34880
669.00,12.73593
670.00,13.06221
671.00,13.45467
672.00,13.76297
673.00,14.14070
674.00,14.49768
675.00,14.81955
676.00,15.14338
677.00,15.46266
678.00,15.85391
679.00,16.21087
680.00,16.47442
681.00,16.77049
682.00,17.16779
683.00,17.42533
684.00,17.75822
685.00,18.02812
686.00,18.33396
687.00,18.59230
688.00,18.88574
689.00,19.17972
690.00,19.43086
691.00,19.67050
692.00,19.90142
693.00,20.15613
694.00,20.40477
695.00,20.64493
696.00,20.85131
697.00,21.00249
698.00,21.21948
699.00,21.48953
700.00,21.62598
701.00,21.80952
702.00,22.05417
703.00,22.16631
704.00,22.30555
705.00,22.55877
706.00,22.67126
707.00,22.89582
708.00,23.02728
709.00,23.18637
710.00,23.31102
711.00,23.46307
712.00,23.57918
713.00,23.67191
714.00,23.83887
715.00,23.95164
716.00,24.00620
717.00,24.17745
718.00,24.26769
719.00,24.33432
720.00,24.48441
721.00,24.62605
722.00,24.71223
723.00,24.75906
724.00,24.92222
725.00,25.01773
726.00,25.05500
727.00,25.09428
728.00,25.22608
729.00,25.35089
730.00,25.37484
731.00,25.51207
732.00,25.53529
733.00,25.64757
734.00,25.64311
735.00,25.81956
736.00,25.76562
737.00,25.92080
738.00,25.89046
739.00,26.03035
740.00,26.07315
741.00,26.20696
742.00,26.24757
743.00,26.27535
744.00,26.36129
745.00,26.33795
746.00,26.45539
747.00,26.40927
748.00,26.59516
749.00,26.52487
750.00,26.65612
751.00,26.82639
752.00,26.80314
753.00,26.77500
754.00,26.86869
755.00,26.83393
756.00,26.88428
757.00,27.02999
758.00,26.97105
759.00,27.10633
760.00,26.99464
761.00,27.18382
762.00,27.22103
763.00,27.24453
764.00,27.28752
765.00,27.42679
766.00,27.42395
767.00,27.51600
768.00,27.57401
769.00,27.63281
770.00,27.53968
771.00,27.70239
772.00,27.81058
773.00,27.71885
774.00,27.54644
775.00,27.80769
776.00,27.92491
777.00,27.84523
778.00,27.84636
779.00,28.02689
780.00,28.05292
781.00,28.05105
782.00,28.00679
783.00,27.98268
784.00,28.07315
785.00,28.23184
786.00,28.22645
787.00,28.23043
788.00,28.30986
789.00,28.30780
790.00,28.28603
791.00,28.46280
792.00,28.39246
793.00,28.43792
794.00,28.56998
795.00,28.43732
796.00,28.66908
797.00,28.58174
798.00,28.69980
799.00,28.70269
800.00,28.56165
801.00,28.83537
802.00,28.73017
803.00,28.82376
804.00,28.90474
805.00,28.94192
806.00,28.83910
807.00,28.87639
808.00,28.94898
809.00,29.13686
810.00,29.06626
811.00,28.97191
812.00,28.90341
813.00,29.21222
814.00,29.04781
815.00,29.03002
816.00,29.20401
817.00,29.10426
818.00,29.20544
819.00,29.41957
820.00,29.46591
821.00,29.39273
822.00,29.26961
823.00,29.47669
824.00,29.45813
825.00,29.27119
826.00,29.67761
827.00,29.49129
828.00,29.65274
829.00,29.50739
830.00,29.65640
831.00,29.71680
832.00,29.83526
833.00,29.50207
834.00,29.63278
835.00,29.77580
836.00,29.93120
837.00,29.96238
838.00,30.01987
839.00,30.04846
840.00,30.20574
841.00,30.15321
842.00,29.70099
843.00,29.48324
844.00,30.14127
845.00,30.12396
846.00,30.16286
847.00,30.20536
848.00,30.40848
849.00,30.33001
850.00,30.18201
851.00,30.23962
852.00,29.73667
853.00,30.63560
854.00,30.50717
855.00,29.92762
856.00,30.89435
857.00,30.15057
858.00,30.49747
859.00,29.38465
860.00,30.14132
861.00,30.67729
862.00,31.50901
863.00,30.68632
864.00,29.57712
865.00,31.54332
866.00,30.65228
867.00,30.94510
868.00,30.87210
869.00,30.84278
870.00,32.47827
871.00,32.10934
872.00,29.69264
873.00,30.92361
874.00,30.11936
875.00,32.96495
876.00,29.47831
877.00,31.70789
878.00,29.92373
879.00,30.81822
880.00,30.12773
881.00,31.77698
882.00,32.12034
883.00,29.71204
884.00,32.47813
885.00,32.79658
886.00,28.66002
887.00,30.37490
888.00,32.64498
889.00,31.23302
890.00,31.91306
891.00,29.48588
892.00,29.63285
893.00,30.00326
894.00,31.79716
895.00,25.58621
896.00,33.04874
897.00,27.19831
898.00,34.27303
899.00,26.83755
900.00,32.29353
