"I - RawData"
"Wavelength nm.","T%"
400.00,0.03837
401.00,0.03925
402.00,0.04165
403.00,0.04087
404.00,0.04240
405.00,0.04256
406.00,0.04325
407.00,0.04399
408.00,0.04439
409.00,0.04402
410.00,0.04448
411.00,0.04554
412.00,0.04345
413.00,0.04348
414.00,0.04385
415.00,0.04412
416.00,0.04226
417.00,0.04171
418.00,0.03997
419.00,0.04138
420.00,0.03969
421.00,0.04021
422.00,0.04160
423.00,0.04277
424.00,0.04412
425.00,0.04708
426.00,0.05311
427.00,0.06031
428.00,0.07302
429.00,0.08897
430.00,0.10703
431.00,0.13079
432.00,0.15591
433.00,0.17524
434.00,0.19043
435.00,0.20743
436.00,0.21544
437.00,0.22549
438.00,0.23123
439.00,0.23992
440.00,0.24875
441.00,0.24896
442.00,0.25415
443.00,0.25904
444.00,0.26649
445.00,0.27242
446.00,0.27830
447.00,0.28181
448.00,0.28641
449.00,0.29060
450.00,0.29592
451.00,0.29999
452.00,0.30537
453.00,0.31194
454.00,0.32161
455.00,0.32165
456.00,0.33087
457.00,0.33353
458.00,0.34234
459.00,0.34645
460.00,0.35340
461.00,0.35737
462.00,0.36557
463.00,0.36936
464.00,0.37759
465.00,0.38301
466.00,0.39084
467.00,0.39623
468.00,0.40081
469.00,0.40990
470.00,0.41631
471.00,0.42015
472.00,0.42780
473.00,0.43267
474.00,0.43464
475.00,0.44561
476.00,0.45234
477.00,0.45583
478.00,0.46014
479.00,0.46721
480.00,0.47593
481.00,0.48496
482.00,0.48430
483.00,0.49297
484.00,0.50116
485.00,0.50706
486.00,0.51098
487.00,0.52195
488.00,0.53028
489.00,0.53636
490.00,0.53732
491.00,0.54649
492.00,0.55342
493.00,0.55898
494.00,0.56777
495.00,0.57122
496.00,0.58095
497.00,0.58508
498.00,0.59274
499.00,0.59570
500.00,0.60445
501.00,0.61079
502.00,0.61994
503.00,0.62253
504.00,0.62851
505.00,0.63777
506.00,0.64507
507.00,0.65304
508.00,0.66224
509.00,0.66733
510.00,0.67077
511.00,0.68118
512.00,0.68649
513.00,0.69131
514.00,0.70427
515.00,0.70899
516.00,0.71291
517.00,0.71579
518.00,0.72615
519.00,0.72840
520.00,0.73343
521.00,0.73860
522.00,0.74338
523.00,0.75158
524.00,0.75580
525.00,0.75737
526.00,0.76786
527.00,0.77288
528.00,0.77620
529.00,0.77936
530.00,0.78380
531.00,0.79381
532.00,0.79953
533.00,0.79927
534.00,0.80913
535.00,0.81265
536.00,0.81834
537.00,0.81724
538.00,0.82560
539.00,0.82963
540.00,0.83074
541.00,0.83436
542.00,0.83848
543.00,0.84115
544.00,0.84694
545.00,0.84719
546.00,0.84419
547.00,0.85404
548.00,0.85496
549.00,0.86313
550.00,0.86554
551.00,0.86631
552.00,0.86603
553.00,0.87238
554.00,0.87716
555.00,0.88545
556.00,0.88127
557.00,0.88351
558.00,0.89010
559.00,0.89306
560.00,0.90169
561.00,0.90451
562.00,0.91029
563.00,0.91603
564.00,0.91859
565.00,0.92760
566.00,0.93493
567.00,0.94075
568.00,0.94060
569.00,0.95924
570.00,0.96733
571.00,0.97715
572.00,0.98985
573.00,0.99833
574.00,1.00799
575.00,1.01853
576.00,1.03702
577.00,1.05241
578.00,1.06611
579.00,1.08740
580.00,1.10390
581.00,1.12665
582.00,1.14375
583.00,1.17131
584.00,1.19380
585.00,1.21370
586.00,1.24334
587.00,1.27011
588.00,1.30537
589.00,1.34043
590.00,1.37994
591.00,1.41289
592.00,1.46125
593.00,1.49846
594.00,1.54324
595.00,1.59956
596.00,1.65881
597.00,1.71819
598.00,1.78123
599.00,1.84334
600.00,1.91427
601.00,1.98634
602.00,2.05747
603.00,2.14202
604.00,2.23837
605.00,2.32722
606.00,2.43308
607.00,2.54200
608.00,2.64501
609.00,2.75689
610.00,2.88144
611.00,3.01002
612.00,3.14130
613.00,3.28444
614.00,3.43785
615.00,3.61021
616.00,3.76119
617.00,3.93700
618.00,4.12722
619.00,4.31496
620.00,4.52180
621.00,4.76504
622.00,4.96771
623.00,5.19562
624.00,5.42652
625.00,5.68138
626.00,5.92120
627.00,6.19796
628.00,6.47025
629.00,6.73378
630.00,7.02598
631.00,7.31519
632.00,7.61557
633.00,7.93188
634.00,8.25154
635.00,8.59761
636.00,8.94652
637.00,9.30984
638.00,9.64072
639.00,10.00627
640.00,10.40666
641.00,10.80368
642.00,11.21437
643.00,11.61539
644.00,11.96611
645.00,12.39227
646.00,12.77714
647.00,13.18225
648.00,13.64052
649.00,14.04096
650.00,14.48557
651.00,14.87167
652.00,15.28932
653.00,15.71775
654.00,16.13593
655.00,16.56194
656.00,16.99268
657.00,17.42209
658.00,17.89839
659.00,18.35494
660.00,18.73037
661.00,19.24999
662.00,19.63735
663.00,20.09805
664.00,20.57375
665.00,21.00980
666.00,21.47418
667.00,21.87809
668.00,22.33237
669.00,22.80216
670.00,23.20410
671.00,23.65505
672.00,24.06339
673.00,24.45415
674.00,24.83689
675.00,25.27739
676.00,25.66426
677.00,26.09811
678.00,26.45198
679.00,26.85323
680.00,27.23689
681.00,27.70095
682.00,28.04001
683.00,28.48825
684.00,28.80446
685.00,29.19811
686.00,29.58400
687.00,29.93171
688.00,30.19908
689.00,30.60300
690.00,30.91641
691.00,31.21429
692.00,31.50485
693.00,31.84046
694.00,32.09564
695.00,32.42322
696.00,32.62022
697.00,32.90943
698.00,33.16115
699.00,33.42487
700.00,33.68296
701.00,33.89658
702.00,34.14347
703.00,34.36408
704.00,34.56579
705.00,34.83880
706.00,35.04080
707.00,35.31713
708.00,35.47227
709.00,35.64746
710.00,35.84058
711.00,35.88103
712.00,36.23241
713.00,36.32728
714.00,36.53331
715.00,36.61540
716.00,36.87178
717.00,36.93547
718.00,37.15787
719.00,37.21192
720.00,37.39152
721.00,37.40101
722.00,37.65336
723.00,37.91581
724.00,37.94837
725.00,37.97638
726.00,38.27570
727.00,38.32251
728.00,38.49109
729.00,38.55410
730.00,38.67037
731.00,38.81784
732.00,38.96619
733.00,39.00924
734.00,39.19719
735.00,39.26693
736.00,39.48652
737.00,39.53526
738.00,39.60502
739.00,39.68426
740.00,39.85506
741.00,39.88488
742.00,39.98985
743.00,40.21233
744.00,40.27098
745.00,40.43440
746.00,40.46132
747.00,40.69762
748.00,40.73590
749.00,40.72573
750.00,40.99882
751.00,41.04169
752.00,41.18327
753.00,41.32665
754.00,41.37995
755.00,41.51210
756.00,41.41905
757.00,41.64513
758.00,41.96761
759.00,41.97098
760.00,41.91568
761.00,42.23917
762.00,42.23361
763.00,42.37977
764.00,42.47990
765.00,42.43823
766.00,42.51540
767.00,42.69735
768.00,42.72170
769.00,42.78957
770.00,43.08470
771.00,43.04512
772.00,43.06514
773.00,43.22093
774.00,43.59129
775.00,43.44646
776.00,43.42970
777.00,43.49414
778.00,43.79814
779.00,43.83396
780.00,43.95846
781.00,43.96091
782.00,43.96190
783.00,44.26276
784.00,44.35392
785.00,44.29143
786.00,44.40293
787.00,44.61011
788.00,44.33033
789.00,44.81260
790.00,44.90183
791.00,44.64430
792.00,44.94531
793.00,45.00213
794.00,45.08414
795.00,45.15120
796.00,45.33515
797.00,45.24652
798.00,45.43559
799.00,45.52087
800.00,45.33786
801.00,45.61013
802.00,45.65489
803.00,45.57395
804.00,45.92873
805.00,45.83622
806.00,45.88057
807.00,45.82030
808.00,45.84277
809.00,46.05371
810.00,45.89785
811.00,46.15599
812.00,46.35450
813.00,46.31692
814.00,46.28685
815.00,46.25946
816.00,46.78403
817.00,46.50733
818.00,46.62215
819.00,46.68413
820.00,46.68630
821.00,46.87828
822.00,46.79169
823.00,46.87321
824.00,46.70244
825.00,46.99076
826.00,47.02892
827.00,46.67974
828.00,46.98795
829.00,47.13524
830.00,47.25490
831.00,47.05039
832.00,47.59316
833.00,47.00761
834.00,47.09068
835.00,47.37305
836.00,47.39804
837.00,47.52005
838.00,47.43998
839.00,47.72704
840.00,47.62570
841.00,46.69961
842.00,47.35495
843.00,46.54177
844.00,47.13957
845.00,47.03033
846.00,47.46854
847.00,47.69344
848.00,47.98042
849.00,47.63920
850.00,47.81224
851.00,46.92143
852.00,48.20727
853.00,47.08933
854.00,47.59028
855.00,47.39282
856.00,48.11728
857.00,46.01668
858.00,46.23004
859.00,48.17966
860.00,48.39304
861.00,47.93338
862.00,47.39128
863.00,46.64077
864.00,47.38975
865.00,46.91361
866.00,47.25755
867.00,44.75357
868.00,47.46593
869.00,47.49356
870.00,46.69256
871.00,47.47451
872.00,42.96747
873.00,46.73732
874.00,48.20672
875.00,48.34144
876.00,45.24957
877.00,46.38212
878.00,46.55381
879.00,46.18887
880.00,44.09689
881.00,49.44640
882.00,45.73573
883.00,43.58355
884.00,45.10434
885.00,47.92074
886.00,48.46155
887.00,42.61524
888.00,42.19553
889.00,42.04272
890.00,45.46733
891.00,49.17549
892.00,46.09829
893.00,46.85648
894.00,44.24990
895.00,44.78525
896.00,50.21025
897.00,44.89557
898.00,42.37317
899.00,44.83677
900.00,38.41758
